#FORMAT      : EMSA/MAS Spectral Data File
#VERSION     : 1.0
#TITLE       : MonzogabbroExample CP7
#DATE        : 30-AUG-2017
#TIME        : 10:48: 0
#OWNER       : 
#NPOINTS     : 1500
#NCOLUMNS    : 1
#XUNITS      : keV
#YUNITS      : Intensity
#DATATYPE    : XY
#XPERCHAN    : 0.010000000
#OFFSET      : 0.000000000
#CHOFFSET    : 0.000000
#SIGNALTYPE  : EDS
#XLABEL      : X-Ray Energy
#YLABEL      : X-Ray Intensity
#BEAMKV   -kV: 15.0
#EMISSION -uA: 0.0000
#PROBECUR -nA: 0.0000
#BEAMDIAM -nm: 0.0
#MAGCAM      : 500.0
#OPERMODE    : IMAG
#XTILTSTGE-dg: 0.000
#YTILTSTGE-dg: 0.000
#XPOSITION   : 1.606
#YPOSITION   : -1.020
#ZPOSITION   : 12.537
#ELEVANGLE-dg: 34.96
#AZIMANGLE-dg: 0.00
#SOLIDANGL-sR: 0.0331
#LIVETIME  -s: 0.000
#REALTIME  -s: 0.000
#THCWIND  -cm: 3.00E-05
#TAUWIND  -cm: 2.00E-06
#TDEADLYR -cm: 1.00E-06
#EDSDET      : SIUTW
#COMMENT     : The following parameters are defined by Thermo Fisher Scientific
##INSTRUMENT : NSS
##DETNAME    : UD100
##CONTAM     : 0.00E+00
##CONTAMTYPE : NONE
##WORKDIST   : 9.95
##STAGEROT   : 0.003
##SLIDEPOS   : 55.000
##CRYSTMATL  : Si-Drift
##CRYSTAREA  : 100.000
##CRYSTTHICK : 0.450
##WINTYPE    : NORVAR
##CONTMATL   : SDD_LELMT
##WINDCOAT   : ALUMINUM
##WINDTHICK  : 0.030
##DEADTIME   : 0.000
##TIMECNSTNT : 1600
##EDSBOARDREV: 2
##ZEROWIDTH  : 51.800
##DETECTS    : 0
##CONVERTS   : 0
##STORES     : 0
##ESCPKSREM  : 0
##ZEROPKSREM : 0
##SUMPKSREM  : 0
##ZEROCUTOFF : 0.000
##DETSUBTYPE : 3
##EXPONENT   : 0.000
##LOWEVADJ   : 0.000
##BEAMX      : -1.000
##BEAMY      : -1.000
##CHARGE     : 0.00E+00
##QUANT_DATE : (null)
##QUANT_CHI  : 0.000
##WDS_ANGLE  : 0.000
##FITTYPE    : 0
##MATRIXCORR : 0
#SPECTRUM    : 
0.0000,     0.0,
0.0100,     0.0,
0.0200,     0.0,
0.0300,     0.0,
0.0400,     0.0,
0.0500,     0.0,
0.0600,     0.0,
0.0700,     0.0,
0.0800,     0.0,
0.0900,     0.0,
0.1000,     0.0,
0.1100,     0.0,
0.1200,     0.0,
0.1300,     0.0,
0.1400,     0.0,
0.1500,     0.0,
0.1600,     0.0,
0.1700,     0.0,
0.1800,     0.0,
0.1900,     0.0,
0.2000,   621.0,
0.2100,   760.0,
0.2200,   982.0,
0.2300,  1203.0,
0.2400,  1602.0,
0.2500,  1837.0,
0.2600,  2163.0,
0.2700,  2309.0,
0.2800,  2042.0,
0.2900,  1651.0,
0.3000,  1437.0,
0.3100,  1019.0,
0.3200,   804.0,
0.3300,   664.0,
0.3400,   611.0,
0.3500,   627.0,
0.3600,   659.0,
0.3700,   656.0,
0.3800,   784.0,
0.3900,   867.0,
0.4000,   982.0,
0.4100,  1141.0,
0.4200,  1387.0,
0.4300,  1881.0,
0.4400,  2941.0,
0.4500,  4524.0,
0.4600,  7549.0,
0.4700, 11800.0,
0.4800, 17704.0,
0.4900, 24902.0,
0.5000, 32099.0,
0.5100, 37164.0,
0.5200, 38461.0,
0.5300, 35204.0,
0.5400, 29024.0,
0.5500, 21406.0,
0.5600, 14073.0,
0.5700,  8594.0,
0.5800,  4876.0,
0.5900,  2891.0,
0.6000,  1978.0,
0.6100,  1744.0,
0.6200,  1559.0,
0.6300,  1581.0,
0.6400,  1765.0,
0.6500,  1991.0,
0.6600,  2451.0,
0.6700,  2895.0,
0.6800,  3473.0,
0.6900,  3909.0,
0.7000,  4414.0,
0.7100,  4226.0,
0.7200,  3991.0,
0.7300,  3355.0,
0.7400,  2736.0,
0.7500,  2103.0,
0.7600,  1468.0,
0.7700,  1316.0,
0.7800,  1015.0,
0.7900,   960.0,
0.8000,   905.0,
0.8100,   852.0,
0.8200,   870.0,
0.8300,   876.0,
0.8400,   866.0,
0.8500,   821.0,
0.8600,   841.0,
0.8700,   904.0,
0.8800,   871.0,
0.8900,   956.0,
0.9000,   871.0,
0.9100,   959.0,
0.9200,   945.0,
0.9300,   958.0,
0.9400,   971.0,
0.9500,  1018.0,
0.9600,  1053.0,
0.9700,  1089.0,
0.9800,  1209.0,
0.9900,  1433.0,
1.0000,  1580.0,
1.0100,  1772.0,
1.0200,  1956.0,
1.0300,  2155.0,
1.0400,  2176.0,
1.0500,  2185.0,
1.0600,  2009.0,
1.0700,  1830.0,
1.0800,  1516.0,
1.0900,  1469.0,
1.1000,  1262.0,
1.1100,  1175.0,
1.1200,  1153.0,
1.1300,  1183.0,
1.1400,  1086.0,
1.1500,  1329.0,
1.1600,  1274.0,
1.1700,  1476.0,
1.1800,  1700.0,
1.1900,  2135.0,
1.2000,  2796.0,
1.2100,  3635.0,
1.2200,  4439.0,
1.2300,  5516.0,
1.2400,  6171.0,
1.2500,  6559.0,
1.2600,  6221.0,
1.2700,  5809.0,
1.2800,  4964.0,
1.2900,  4001.0,
1.3000,  3077.0,
1.3100,  2454.0,
1.3200,  1843.0,
1.3300,  1642.0,
1.3400,  1466.0,
1.3500,  1393.0,
1.3600,  1306.0,
1.3700,  1279.0,
1.3800,  1421.0,
1.3900,  1488.0,
1.4000,  1677.0,
1.4100,  2174.0,
1.4200,  2891.0,
1.4300,  4091.0,
1.4400,  5294.0,
1.4500,  6812.0,
1.4600,  8376.0,
1.4700,  9744.0,
1.4800, 10386.0,
1.4900, 10284.0,
1.5000,  9675.0,
1.5100,  8480.0,
1.5200,  6987.0,
1.5300,  5549.0,
1.5400,  4155.0,
1.5500,  3140.0,
1.5600,  2517.0,
1.5700,  1951.0,
1.5800,  1599.0,
1.5900,  1484.0,
1.6000,  1363.0,
1.6100,  1355.0,
1.6200,  1439.0,
1.6300,  1569.0,
1.6400,  1809.0,
1.6500,  2633.0,
1.6600,  3926.0,
1.6700,  5736.0,
1.6800,  8433.0,
1.6900, 11985.0,
1.7000, 15985.0,
1.7100, 19892.0,
1.7200, 23959.0,
1.7300, 26223.0,
1.7400, 26746.0,
1.7500, 25932.0,
1.7600, 22949.0,
1.7700, 18983.0,
1.7800, 14937.0,
1.7900, 10995.0,
1.8000,  8032.0,
1.8100,  5862.0,
1.8200,  4162.0,
1.8300,  3153.0,
1.8400,  2548.0,
1.8500,  2066.0,
1.8600,  1800.0,
1.8700,  1499.0,
1.8800,  1399.0,
1.8900,  1207.0,
1.9000,  1081.0,
1.9100,  1133.0,
1.9200,  1056.0,
1.9300,  1114.0,
1.9400,  1192.0,
1.9500,  1124.0,
1.9600,  1265.0,
1.9700,  1285.0,
1.9800,  1445.0,
1.9900,  1648.0,
2.0000,  1620.0,
2.0100,  1724.0,
2.0200,  1678.0,
2.0300,  1719.0,
2.0400,  1648.0,
2.0500,  1548.0,
2.0600,  1420.0,
2.0700,  1243.0,
2.0800,  1159.0,
2.0900,  1015.0,
2.1000,  1027.0,
2.1100,  1063.0,
2.1200,  1044.0,
2.1300,  1040.0,
2.1400,   940.0,
2.1500,  1010.0,
2.1600,  1054.0,
2.1700,  1035.0,
2.1800,  1027.0,
2.1900,  1079.0,
2.2000,  1068.0,
2.2100,  1046.0,
2.2200,  1077.0,
2.2300,  1201.0,
2.2400,  1179.0,
2.2500,  1279.0,
2.2600,  1214.0,
2.2700,  1263.0,
2.2800,  1194.0,
2.2900,  1146.0,
2.3000,  1128.0,
2.3100,  1079.0,
2.3200,  1032.0,
2.3300,  1003.0,
2.3400,   955.0,
2.3500,   973.0,
2.3600,   956.0,
2.3700,   994.0,
2.3800,   952.0,
2.3900,   823.0,
2.4000,   942.0,
2.4100,   900.0,
2.4200,   944.0,
2.4300,   925.0,
2.4400,   862.0,
2.4500,   880.0,
2.4600,   866.0,
2.4700,   870.0,
2.4800,   848.0,
2.4900,   892.0,
2.5000,   956.0,
2.5100,   910.0,
2.5200,   910.0,
2.5300,   933.0,
2.5400,  1015.0,
2.5500,  1064.0,
2.5600,  1100.0,
2.5700,  1182.0,
2.5800,  1242.0,
2.5900,  1346.0,
2.6000,  1479.0,
2.6100,  1428.0,
2.6200,  1476.0,
2.6300,  1471.0,
2.6400,  1354.0,
2.6500,  1294.0,
2.6600,  1275.0,
2.6700,  1206.0,
2.6800,  1132.0,
2.6900,  1003.0,
2.7000,   950.0,
2.7100,   987.0,
2.7200,   904.0,
2.7300,   908.0,
2.7400,   848.0,
2.7500,   818.0,
2.7600,   861.0,
2.7700,   818.0,
2.7800,   876.0,
2.7900,   890.0,
2.8000,   874.0,
2.8100,   911.0,
2.8200,   879.0,
2.8300,   854.0,
2.8400,   847.0,
2.8500,   869.0,
2.8600,   867.0,
2.8700,   857.0,
2.8800,   804.0,
2.8900,   827.0,
2.9000,   830.0,
2.9100,   877.0,
2.9200,   775.0,
2.9300,   818.0,
2.9400,   818.0,
2.9500,   843.0,
2.9600,   831.0,
2.9700,   859.0,
2.9800,   836.0,
2.9900,   924.0,
3.0000,   897.0,
3.0100,   880.0,
3.0200,   832.0,
3.0300,   802.0,
3.0400,   780.0,
3.0500,   834.0,
3.0600,   804.0,
3.0700,   786.0,
3.0800,   799.0,
3.0900,   763.0,
3.1000,   763.0,
3.1100,   782.0,
3.1200,   807.0,
3.1300,   768.0,
3.1400,   814.0,
3.1500,   789.0,
3.1600,   830.0,
3.1700,   803.0,
3.1800,   833.0,
3.1900,   904.0,
3.2000,   920.0,
3.2100,   929.0,
3.2200,  1007.0,
3.2300,  1116.0,
3.2400,  1294.0,
3.2500,  1336.0,
3.2600,  1499.0,
3.2700,  1633.0,
3.2800,  1832.0,
3.2900,  2038.0,
3.3000,  2005.0,
3.3100,  2063.0,
3.3200,  2158.0,
3.3300,  1996.0,
3.3400,  1769.0,
3.3500,  1778.0,
3.3600,  1532.0,
3.3700,  1315.0,
3.3800,  1213.0,
3.3900,  1032.0,
3.4000,   923.0,
3.4100,   927.0,
3.4200,   892.0,
3.4300,   838.0,
3.4400,   849.0,
3.4500,   815.0,
3.4600,   867.0,
3.4700,   886.0,
3.4800,   846.0,
3.4900,   865.0,
3.5000,   852.0,
3.5100,   861.0,
3.5200,   832.0,
3.5300,   890.0,
3.5400,   848.0,
3.5500,   904.0,
3.5600,   864.0,
3.5700,   949.0,
3.5800,   961.0,
3.5900,   999.0,
3.6000,  1028.0,
3.6100,  1130.0,
3.6200,  1178.0,
3.6300,  1277.0,
3.6400,  1506.0,
3.6500,  1513.0,
3.6600,  1570.0,
3.6700,  1691.0,
3.6800,  1768.0,
3.6900,  1706.0,
3.7000,  1611.0,
3.7100,  1613.0,
3.7200,  1519.0,
3.7300,  1398.0,
3.7400,  1310.0,
3.7500,  1167.0,
3.7600,  1009.0,
3.7700,   925.0,
3.7800,   816.0,
3.7900,   766.0,
3.8000,   776.0,
3.8100,   756.0,
3.8200,   698.0,
3.8300,   703.0,
3.8400,   633.0,
3.8500,   670.0,
3.8600,   630.0,
3.8700,   652.0,
3.8800,   642.0,
3.8900,   647.0,
3.9000,   719.0,
3.9100,   672.0,
3.9200,   711.0,
3.9300,   724.0,
3.9400,   703.0,
3.9500,   641.0,
3.9600,   701.0,
3.9700,   726.0,
3.9800,   691.0,
3.9900,   776.0,
4.0000,   797.0,
4.0100,   776.0,
4.0200,   790.0,
4.0300,   815.0,
4.0400,   714.0,
4.0500,   678.0,
4.0600,   719.0,
4.0700,   670.0,
4.0800,   692.0,
4.0900,   623.0,
4.1000,   663.0,
4.1100,   709.0,
4.1200,   610.0,
4.1300,   640.0,
4.1400,   609.0,
4.1500,   626.0,
4.1600,   656.0,
4.1700,   588.0,
4.1800,   620.0,
4.1900,   643.0,
4.2000,   600.0,
4.2100,   632.0,
4.2200,   643.0,
4.2300,   646.0,
4.2400,   589.0,
4.2500,   627.0,
4.2600,   621.0,
4.2700,   623.0,
4.2800,   614.0,
4.2900,   645.0,
4.3000,   569.0,
4.3100,   616.0,
4.3200,   561.0,
4.3300,   636.0,
4.3400,   643.0,
4.3500,   587.0,
4.3600,   669.0,
4.3700,   627.0,
4.3800,   591.0,
4.3900,   579.0,
4.4000,   634.0,
4.4100,   609.0,
4.4200,   616.0,
4.4300,   622.0,
4.4400,   593.0,
4.4500,   609.0,
4.4600,   666.0,
4.4700,   691.0,
4.4800,   673.0,
4.4900,   676.0,
4.5000,   713.0,
4.5100,   681.0,
4.5200,   698.0,
4.5300,   730.0,
4.5400,   695.0,
4.5500,   650.0,
4.5600,   632.0,
4.5700,   609.0,
4.5800,   596.0,
4.5900,   642.0,
4.6000,   640.0,
4.6100,   606.0,
4.6200,   572.0,
4.6300,   604.0,
4.6400,   597.0,
4.6500,   571.0,
4.6600,   592.0,
4.6700,   624.0,
4.6800,   544.0,
4.6900,   603.0,
4.7000,   582.0,
4.7100,   600.0,
4.7200,   611.0,
4.7300,   553.0,
4.7400,   552.0,
4.7500,   555.0,
4.7600,   517.0,
4.7700,   539.0,
4.7800,   526.0,
4.7900,   615.0,
4.8000,   582.0,
4.8100,   559.0,
4.8200,   567.0,
4.8300,   515.0,
4.8400,   568.0,
4.8500,   589.0,
4.8600,   524.0,
4.8700,   570.0,
4.8800,   566.0,
4.8900,   585.0,
4.9000,   551.0,
4.9100,   506.0,
4.9200,   565.0,
4.9300,   572.0,
4.9400,   591.0,
4.9500,   542.0,
4.9600,   539.0,
4.9700,   578.0,
4.9800,   586.0,
4.9900,   585.0,
5.0000,   552.0,
5.0100,   546.0,
5.0200,   545.0,
5.0300,   533.0,
5.0400,   556.0,
5.0500,   576.0,
5.0600,   568.0,
5.0700,   577.0,
5.0800,   566.0,
5.0900,   542.0,
5.1000,   552.0,
5.1100,   537.0,
5.1200,   503.0,
5.1300,   578.0,
5.1400,   512.0,
5.1500,   483.0,
5.1600,   536.0,
5.1700,   535.0,
5.1800,   531.0,
5.1900,   563.0,
5.2000,   510.0,
5.2100,   513.0,
5.2200,   600.0,
5.2300,   565.0,
5.2400,   551.0,
5.2500,   522.0,
5.2600,   598.0,
5.2700,   507.0,
5.2800,   529.0,
5.2900,   557.0,
5.3000,   546.0,
5.3100,   514.0,
5.3200,   558.0,
5.3300,   531.0,
5.3400,   556.0,
5.3500,   514.0,
5.3600,   555.0,
5.3700,   519.0,
5.3800,   537.0,
5.3900,   505.0,
5.4000,   501.0,
5.4100,   524.0,
5.4200,   526.0,
5.4300,   505.0,
5.4400,   562.0,
5.4500,   554.0,
5.4600,   513.0,
5.4700,   472.0,
5.4800,   485.0,
5.4900,   529.0,
5.5000,   476.0,
5.5100,   511.0,
5.5200,   469.0,
5.5300,   523.0,
5.5400,   510.0,
5.5500,   508.0,
5.5600,   527.0,
5.5700,   488.0,
5.5800,   502.0,
5.5900,   471.0,
5.6000,   490.0,
5.6100,   497.0,
5.6200,   508.0,
5.6300,   507.0,
5.6400,   514.0,
5.6500,   476.0,
5.6600,   506.0,
5.6700,   466.0,
5.6800,   520.0,
5.6900,   497.0,
5.7000,   494.0,
5.7100,   496.0,
5.7200,   486.0,
5.7300,   490.0,
5.7400,   495.0,
5.7500,   508.0,
5.7600,   504.0,
5.7700,   493.0,
5.7800,   484.0,
5.7900,   497.0,
5.8000,   542.0,
5.8100,   521.0,
5.8200,   498.0,
5.8300,   521.0,
5.8400,   516.0,
5.8500,   571.0,
5.8600,   495.0,
5.8700,   481.0,
5.8800,   513.0,
5.8900,   562.0,
5.9000,   550.0,
5.9100,   531.0,
5.9200,   563.0,
5.9300,   472.0,
5.9400,   502.0,
5.9500,   537.0,
5.9600,   499.0,
5.9700,   512.0,
5.9800,   470.0,
5.9900,   474.0,
6.0000,   443.0,
6.0100,   484.0,
6.0200,   452.0,
6.0300,   520.0,
6.0400,   470.0,
6.0500,   479.0,
6.0600,   473.0,
6.0700,   443.0,
6.0800,   476.0,
6.0900,   485.0,
6.1000,   530.0,
6.1100,   444.0,
6.1200,   486.0,
6.1300,   468.0,
6.1400,   504.0,
6.1500,   450.0,
6.1600,   506.0,
6.1700,   497.0,
6.1800,   502.0,
6.1900,   530.0,
6.2000,   490.0,
6.2100,   534.0,
6.2200,   520.0,
6.2300,   608.0,
6.2400,   568.0,
6.2500,   599.0,
6.2600,   743.0,
6.2700,   858.0,
6.2800,  1077.0,
6.2900,  1190.0,
6.3000,  1435.0,
6.3100,  1810.0,
6.3200,  2188.0,
6.3300,  2716.0,
6.3400,  2999.0,
6.3500,  3451.0,
6.3600,  3889.0,
6.3700,  4219.0,
6.3800,  4729.0,
6.3900,  4732.0,
6.4000,  4873.0,
6.4100,  4827.0,
6.4200,  4384.0,
6.4300,  4331.0,
6.4400,  3861.0,
6.4500,  3413.0,
6.4600,  2914.0,
6.4700,  2471.0,
6.4800,  2001.0,
6.4900,  1763.0,
6.5000,  1387.0,
6.5100,  1173.0,
6.5200,   898.0,
6.5300,   791.0,
6.5400,   687.0,
6.5500,   592.0,
6.5600,   570.0,
6.5700,   551.0,
6.5800,   454.0,
6.5900,   521.0,
6.6000,   480.0,
6.6100,   443.0,
6.6200,   440.0,
6.6300,   432.0,
6.6400,   451.0,
6.6500,   459.0,
6.6600,   436.0,
6.6700,   488.0,
6.6800,   454.0,
6.6900,   413.0,
6.7000,   460.0,
6.7100,   448.0,
6.7200,   481.0,
6.7300,   431.0,
6.7400,   438.0,
6.7500,   417.0,
6.7600,   442.0,
6.7700,   420.0,
6.7800,   476.0,
6.7900,   425.0,
6.8000,   426.0,
6.8100,   460.0,
6.8200,   469.0,
6.8300,   447.0,
6.8400,   436.0,
6.8500,   551.0,
6.8600,   505.0,
6.8700,   477.0,
6.8800,   505.0,
6.8900,   527.0,
6.9000,   540.0,
6.9100,   591.0,
6.9200,   540.0,
6.9300,   600.0,
6.9400,   632.0,
6.9500,   631.0,
6.9600,   660.0,
6.9700,   695.0,
6.9800,   719.0,
6.9900,   793.0,
7.0000,   744.0,
7.0100,   874.0,
7.0200,   912.0,
7.0300,   933.0,
7.0400,   861.0,
7.0500,   997.0,
7.0600,   918.0,
7.0700,   940.0,
7.0800,   919.0,
7.0900,   971.0,
7.1000,   914.0,
7.1100,   834.0,
7.1200,   766.0,
7.1300,   697.0,
7.1400,   668.0,
7.1500,   548.0,
7.1600,   501.0,
7.1700,   537.0,
7.1800,   484.0,
7.1900,   468.0,
7.2000,   449.0,
7.2100,   439.0,
7.2200,   446.0,
7.2300,   412.0,
7.2400,   451.0,
7.2500,   466.0,
7.2600,   340.0,
7.2700,   418.0,
7.2800,   386.0,
7.2900,   407.0,
7.3000,   452.0,
7.3100,   432.0,
7.3200,   412.0,
7.3300,   431.0,
7.3400,   402.0,
7.3500,   418.0,
7.3600,   415.0,
7.3700,   395.0,
7.3800,   427.0,
7.3900,   440.0,
7.4000,   364.0,
7.4100,   399.0,
7.4200,   424.0,
7.4300,   430.0,
7.4400,   405.0,
7.4500,   459.0,
7.4600,   383.0,
7.4700,   380.0,
7.4800,   389.0,
7.4900,   430.0,
7.5000,   477.0,
7.5100,   442.0,
7.5200,   430.0,
7.5300,   405.0,
7.5400,   400.0,
7.5500,   431.0,
7.5600,   418.0,
7.5700,   425.0,
7.5800,   420.0,
7.5900,   381.0,
7.6000,   468.0,
7.6100,   399.0,
7.6200,   407.0,
7.6300,   433.0,
7.6400,   415.0,
7.6500,   413.0,
7.6600,   458.0,
7.6700,   417.0,
7.6800,   423.0,
7.6900,   402.0,
7.7000,   423.0,
7.7100,   423.0,
7.7200,   460.0,
7.7300,   371.0,
7.7400,   390.0,
7.7500,   438.0,
7.7600,   392.0,
7.7700,   420.0,
7.7800,   400.0,
7.7900,   381.0,
7.8000,   387.0,
7.8100,   448.0,
7.8200,   404.0,
7.8300,   348.0,
7.8400,   451.0,
7.8500,   376.0,
7.8600,   365.0,
7.8700,   413.0,
7.8800,   360.0,
7.8900,   420.0,
7.9000,   405.0,
7.9100,   427.0,
7.9200,   380.0,
7.9300,   406.0,
7.9400,   387.0,
7.9500,   419.0,
7.9600,   417.0,
7.9700,   449.0,
7.9800,   381.0,
7.9900,   380.0,
8.0000,   354.0,
8.0100,   372.0,
8.0200,   394.0,
8.0300,   457.0,
8.0400,   396.0,
8.0500,   365.0,
8.0600,   409.0,
8.0700,   415.0,
8.0800,   377.0,
8.0900,   390.0,
8.1000,   425.0,
8.1100,   424.0,
8.1200,   463.0,
8.1300,   493.0,
8.1400,   408.0,
8.1500,   416.0,
8.1600,   406.0,
8.1700,   421.0,
8.1800,   416.0,
8.1900,   438.0,
8.2000,   425.0,
8.2100,   424.0,
8.2200,   414.0,
8.2300,   437.0,
8.2400,   406.0,
8.2500,   434.0,
8.2600,   358.0,
8.2700,   399.0,
8.2800,   366.0,
8.2900,   351.0,
8.3000,   392.0,
8.3100,   420.0,
8.3200,   376.0,
8.3300,   352.0,
8.3400,   386.0,
8.3500,   397.0,
8.3600,   389.0,
8.3700,   384.0,
8.3800,   419.0,
8.3900,   374.0,
8.4000,   380.0,
8.4100,   356.0,
8.4200,   371.0,
8.4300,   390.0,
8.4400,   357.0,
8.4500,   364.0,
8.4600,   380.0,
8.4700,   370.0,
8.4800,   380.0,
8.4900,   362.0,
8.5000,   335.0,
8.5100,   365.0,
8.5200,   417.0,
8.5300,   340.0,
8.5400,   394.0,
8.5500,   345.0,
8.5600,   386.0,
8.5700,   365.0,
8.5800,   383.0,
8.5900,   340.0,
8.6000,   336.0,
8.6100,   329.0,
8.6200,   371.0,
8.6300,   356.0,
8.6400,   375.0,
8.6500,   352.0,
8.6600,   366.0,
8.6700,   378.0,
8.6800,   366.0,
8.6900,   384.0,
8.7000,   353.0,
8.7100,   342.0,
8.7200,   314.0,
8.7300,   371.0,
8.7400,   351.0,
8.7500,   319.0,
8.7600,   351.0,
8.7700,   346.0,
8.7800,   326.0,
8.7900,   338.0,
8.8000,   391.0,
8.8100,   331.0,
8.8200,   356.0,
8.8300,   330.0,
8.8400,   358.0,
8.8500,   363.0,
8.8600,   345.0,
8.8700,   398.0,
8.8800,   360.0,
8.8900,   346.0,
8.9000,   358.0,
8.9100,   365.0,
8.9200,   356.0,
8.9300,   321.0,
8.9400,   321.0,
8.9500,   408.0,
8.9600,   345.0,
8.9700,   345.0,
8.9800,   353.0,
8.9900,   378.0,
9.0000,   363.0,
9.0100,   319.0,
9.0200,   340.0,
9.0300,   359.0,
9.0400,   360.0,
9.0500,   362.0,
9.0600,   346.0,
9.0700,   334.0,
9.0800,   341.0,
9.0900,   371.0,
9.1000,   363.0,
9.1100,   318.0,
9.1200,   359.0,
9.1300,   366.0,
9.1400,   323.0,
9.1500,   327.0,
9.1600,   326.0,
9.1700,   308.0,
9.1800,   349.0,
9.1900,   295.0,
9.2000,   339.0,
9.2100,   352.0,
9.2200,   347.0,
9.2300,   337.0,
9.2400,   326.0,
9.2500,   348.0,
9.2600,   342.0,
9.2700,   311.0,
9.2800,   301.0,
9.2900,   306.0,
9.3000,   318.0,
9.3100,   309.0,
9.3200,   323.0,
9.3300,   327.0,
9.3400,   307.0,
9.3500,   340.0,
9.3600,   353.0,
9.3700,   326.0,
9.3800,   286.0,
9.3900,   332.0,
9.4000,   327.0,
9.4100,   296.0,
9.4200,   340.0,
9.4300,   296.0,
9.4400,   309.0,
9.4500,   288.0,
9.4600,   270.0,
9.4700,   339.0,
9.4800,   351.0,
9.4900,   298.0,
9.5000,   316.0,
9.5100,   315.0,
9.5200,   312.0,
9.5300,   316.0,
9.5400,   287.0,
9.5500,   319.0,
9.5600,   325.0,
9.5700,   378.0,
9.5800,   346.0,
9.5900,   344.0,
9.6000,   334.0,
9.6100,   315.0,
9.6200,   268.0,
9.6300,   317.0,
9.6400,   303.0,
9.6500,   306.0,
9.6600,   305.0,
9.6700,   314.0,
9.6800,   325.0,
9.6900,   309.0,
9.7000,   327.0,
9.7100,   312.0,
9.7200,   294.0,
9.7300,   321.0,
9.7400,   307.0,
9.7500,   313.0,
9.7600,   299.0,
9.7700,   309.0,
9.7800,   304.0,
9.7900,   276.0,
9.8000,   286.0,
9.8100,   244.0,
9.8200,   309.0,
9.8300,   315.0,
9.8400,   296.0,
9.8500,   305.0,
9.8600,   282.0,
9.8700,   302.0,
9.8800,   291.0,
9.8900,   286.0,
9.9000,   314.0,
9.9100,   288.0,
9.9200,   283.0,
9.9300,   290.0,
9.9400,   297.0,
9.9500,   299.0,
9.9600,   284.0,
9.9700,   260.0,
9.9800,   266.0,
9.9900,   303.0,
10.0000,   289.0,
10.0100,   331.0,
10.0200,   308.0,
10.0300,   302.0,
10.0400,   302.0,
10.0500,   277.0,
10.0600,   310.0,
10.0700,   323.0,
10.0800,   279.0,
10.0900,   292.0,
10.1000,   287.0,
10.1100,   257.0,
10.1200,   260.0,
10.1300,   317.0,
10.1400,   275.0,
10.1500,   277.0,
10.1600,   269.0,
10.1700,   271.0,
10.1800,   250.0,
10.1900,   296.0,
10.2000,   292.0,
10.2100,   261.0,
10.2200,   316.0,
10.2300,   294.0,
10.2400,   275.0,
10.2500,   250.0,
10.2600,   308.0,
10.2700,   272.0,
10.2800,   240.0,
10.2900,   285.0,
10.3000,   292.0,
10.3100,   301.0,
10.3200,   290.0,
10.3300,   270.0,
10.3400,   235.0,
10.3500,   284.0,
10.3600,   289.0,
10.3700,   250.0,
10.3800,   234.0,
10.3900,   250.0,
10.4000,   263.0,
10.4100,   275.0,
10.4200,   271.0,
10.4300,   249.0,
10.4400,   263.0,
10.4500,   259.0,
10.4600,   260.0,
10.4700,   253.0,
10.4800,   317.0,
10.4900,   252.0,
10.5000,   290.0,
10.5100,   239.0,
10.5200,   258.0,
10.5300,   280.0,
10.5400,   266.0,
10.5500,   274.0,
10.5600,   273.0,
10.5700,   271.0,
10.5800,   240.0,
10.5900,   279.0,
10.6000,   264.0,
10.6100,   242.0,
10.6200,   267.0,
10.6300,   257.0,
10.6400,   257.0,
10.6500,   263.0,
10.6600,   251.0,
10.6700,   257.0,
10.6800,   269.0,
10.6900,   265.0,
10.7000,   231.0,
10.7100,   259.0,
10.7200,   274.0,
10.7300,   251.0,
10.7400,   293.0,
10.7500,   278.0,
10.7600,   270.0,
10.7700,   271.0,
10.7800,   258.0,
10.7900,   257.0,
10.8000,   243.0,
10.8100,   252.0,
10.8200,   271.0,
10.8300,   241.0,
10.8400,   289.0,
10.8500,   294.0,
10.8600,   229.0,
10.8700,   265.0,
10.8800,   262.0,
10.8900,   213.0,
10.9000,   242.0,
10.9100,   243.0,
10.9200,   237.0,
10.9300,   244.0,
10.9400,   244.0,
10.9500,   249.0,
10.9600,   249.0,
10.9700,   251.0,
10.9800,   253.0,
10.9900,   226.0,
11.0000,   241.0,
11.0100,   266.0,
11.0200,   237.0,
11.0300,   223.0,
11.0400,   235.0,
11.0500,   219.0,
11.0600,   217.0,
11.0700,   261.0,
11.0800,   242.0,
11.0900,   225.0,
11.1000,   260.0,
11.1100,   210.0,
11.1200,   231.0,
11.1300,   218.0,
11.1400,   233.0,
11.1500,   243.0,
11.1600,   228.0,
11.1700,   238.0,
11.1800,   245.0,
11.1900,   225.0,
11.2000,   254.0,
11.2100,   208.0,
11.2200,   249.0,
11.2300,   222.0,
11.2400,   225.0,
11.2500,   231.0,
11.2600,   237.0,
11.2700,   244.0,
11.2800,   218.0,
11.2900,   241.0,
11.3000,   189.0,
11.3100,   228.0,
11.3200,   202.0,
11.3300,   220.0,
11.3400,   228.0,
11.3500,   237.0,
11.3600,   231.0,
11.3700,   203.0,
11.3800,   218.0,
11.3900,   205.0,
11.4000,   215.0,
11.4100,   203.0,
11.4200,   197.0,
11.4300,   193.0,
11.4400,   197.0,
11.4500,   213.0,
11.4600,   208.0,
11.4700,   248.0,
11.4800,   211.0,
11.4900,   193.0,
11.5000,   230.0,
11.5100,   216.0,
11.5200,   188.0,
11.5300,   181.0,
11.5400,   210.0,
11.5500,   210.0,
11.5600,   218.0,
11.5700,   162.0,
11.5800,   199.0,
11.5900,   226.0,
11.6000,   225.0,
11.6100,   215.0,
11.6200,   218.0,
11.6300,   199.0,
11.6400,   215.0,
11.6500,   186.0,
11.6600,   193.0,
11.6700,   207.0,
11.6800,   219.0,
11.6900,   192.0,
11.7000,   208.0,
11.7100,   195.0,
11.7200,   233.0,
11.7300,   190.0,
11.7400,   210.0,
11.7500,   185.0,
11.7600,   174.0,
11.7700,   184.0,
11.7800,   198.0,
11.7900,   200.0,
11.8000,   181.0,
11.8100,   199.0,
11.8200,   184.0,
11.8300,   164.0,
11.8400,   201.0,
11.8500,   207.0,
11.8600,   197.0,
11.8700,   189.0,
11.8800,   181.0,
11.8900,   197.0,
11.9000,   210.0,
11.9100,   191.0,
11.9200,   167.0,
11.9300,   169.0,
11.9400,   186.0,
11.9500,   181.0,
11.9600,   202.0,
11.9700,   164.0,
11.9800,   182.0,
11.9900,   176.0,
12.0000,   184.0,
12.0100,   155.0,
12.0200,   187.0,
12.0300,   201.0,
12.0400,   171.0,
12.0500,   191.0,
12.0600,   152.0,
12.0700,   156.0,
12.0800,   186.0,
12.0900,   168.0,
12.1000,   186.0,
12.1100,   152.0,
12.1200,   175.0,
12.1300,   199.0,
12.1400,   157.0,
12.1500,   192.0,
12.1600,   155.0,
12.1700,   178.0,
12.1800,   152.0,
12.1900,   154.0,
12.2000,   160.0,
12.2100,   146.0,
12.2200,   170.0,
12.2300,   143.0,
12.2400,   163.0,
12.2500,   178.0,
12.2600,   168.0,
12.2700,   168.0,
12.2800,   152.0,
12.2900,   191.0,
12.3000,   143.0,
12.3100,   163.0,
12.3200,   129.0,
12.3300,   144.0,
12.3400,   154.0,
12.3500,   144.0,
12.3600,   154.0,
12.3700,   150.0,
12.3800,   186.0,
12.3900,   146.0,
12.4000,   157.0,
12.4100,   155.0,
12.4200,   149.0,
12.4300,   155.0,
12.4400,   139.0,
12.4500,   160.0,
12.4600,   130.0,
12.4700,   152.0,
12.4800,   126.0,
12.4900,   156.0,
12.5000,   133.0,
12.5100,   165.0,
12.5200,   146.0,
12.5300,   141.0,
12.5400,   155.0,
12.5500,   178.0,
12.5600,   148.0,
12.5700,   139.0,
12.5800,   129.0,
12.5900,   147.0,
12.6000,   129.0,
12.6100,   165.0,
12.6200,   155.0,
12.6300,   154.0,
12.6400,   141.0,
12.6500,   130.0,
12.6600,   127.0,
12.6700,   160.0,
12.6800,   137.0,
12.6900,   119.0,
12.7000,   144.0,
12.7100,   149.0,
12.7200,   145.0,
12.7300,   124.0,
12.7400,   143.0,
12.7500,   133.0,
12.7600,   143.0,
12.7700,   150.0,
12.7800,   127.0,
12.7900,   121.0,
12.8000,   149.0,
12.8100,   143.0,
12.8200,   121.0,
12.8300,   114.0,
12.8400,   113.0,
12.8500,   117.0,
12.8600,   133.0,
12.8700,   113.0,
12.8800,   134.0,
12.8900,   111.0,
12.9000,   122.0,
12.9100,   122.0,
12.9200,   115.0,
12.9300,   110.0,
12.9400,   130.0,
12.9500,    94.0,
12.9600,    89.0,
12.9700,   129.0,
12.9800,   120.0,
12.9900,    90.0,
13.0000,   107.0,
13.0100,    96.0,
13.0200,   107.0,
13.0300,   115.0,
13.0400,   110.0,
13.0500,   116.0,
13.0600,    97.0,
13.0700,    99.0,
13.0800,   115.0,
13.0900,    76.0,
13.1000,    99.0,
13.1100,   104.0,
13.1200,    99.0,
13.1300,    78.0,
13.1400,   114.0,
13.1500,    96.0,
13.1600,    95.0,
13.1700,    87.0,
13.1800,    94.0,
13.1900,   104.0,
13.2000,    93.0,
13.2100,    82.0,
13.2200,    87.0,
13.2300,   112.0,
13.2400,    95.0,
13.2500,    69.0,
13.2600,    88.0,
13.2700,    80.0,
13.2800,    85.0,
13.2900,   103.0,
13.3000,   101.0,
13.3100,    91.0,
13.3200,    95.0,
13.3300,    84.0,
13.3400,    72.0,
13.3500,    82.0,
13.3600,    72.0,
13.3700,    93.0,
13.3800,    73.0,
13.3900,    84.0,
13.4000,    77.0,
13.4100,    63.0,
13.4200,    97.0,
13.4300,    67.0,
13.4400,    84.0,
13.4500,    77.0,
13.4600,    92.0,
13.4700,    68.0,
13.4800,    72.0,
13.4900,   112.0,
13.5000,    66.0,
13.5100,    82.0,
13.5200,    77.0,
13.5300,    60.0,
13.5400,    64.0,
13.5500,    63.0,
13.5600,    61.0,
13.5700,    75.0,
13.5800,    69.0,
13.5900,    65.0,
13.6000,    63.0,
13.6100,    62.0,
13.6200,    68.0,
13.6300,    42.0,
13.6400,    56.0,
13.6500,    54.0,
13.6600,    66.0,
13.6700,    54.0,
13.6800,    62.0,
13.6900,    63.0,
13.7000,    69.0,
13.7100,    63.0,
13.7200,    47.0,
13.7300,    46.0,
13.7400,    48.0,
13.7500,    61.0,
13.7600,    46.0,
13.7700,    46.0,
13.7800,    49.0,
13.7900,    62.0,
13.8000,    56.0,
13.8100,    54.0,
13.8200,    39.0,
13.8300,    59.0,
13.8400,    57.0,
13.8500,    39.0,
13.8600,    50.0,
13.8700,    48.0,
13.8800,    29.0,
13.8900,    46.0,
13.9000,    35.0,
13.9100,    40.0,
13.9200,    45.0,
13.9300,    34.0,
13.9400,    30.0,
13.9500,    42.0,
13.9600,    50.0,
13.9700,    41.0,
13.9800,    38.0,
13.9900,    38.0,
14.0000,    32.0,
14.0100,    40.0,
14.0200,    31.0,
14.0300,    29.0,
14.0400,    30.0,
14.0500,    34.0,
14.0600,    29.0,
14.0700,    35.0,
14.0800,    28.0,
14.0900,    37.0,
14.1000,    30.0,
14.1100,    26.0,
14.1200,    29.0,
14.1300,    21.0,
14.1400,    18.0,
14.1500,    18.0,
14.1600,    29.0,
14.1700,    22.0,
14.1800,    26.0,
14.1900,    25.0,
14.2000,    29.0,
14.2100,    22.0,
14.2200,    23.0,
14.2300,    14.0,
14.2400,    20.0,
14.2500,    10.0,
14.2600,    23.0,
14.2700,    25.0,
14.2800,    25.0,
14.2900,    12.0,
14.3000,    16.0,
14.3100,    17.0,
14.3200,    23.0,
14.3300,    21.0,
14.3400,    14.0,
14.3500,    16.0,
14.3600,    21.0,
14.3700,    18.0,
14.3800,    10.0,
14.3900,     7.0,
14.4000,    20.0,
14.4100,    20.0,
14.4200,     8.0,
14.4300,    19.0,
14.4400,    15.0,
14.4500,    10.0,
14.4600,    13.0,
14.4700,    12.0,
14.4800,    16.0,
14.4900,     4.0,
14.5000,     5.0,
14.5100,    10.0,
14.5200,     3.0,
14.5300,     7.0,
14.5400,    13.0,
14.5500,     8.0,
14.5600,    12.0,
14.5700,     7.0,
14.5800,     9.0,
14.5900,    10.0,
14.6000,     5.0,
14.6100,     7.0,
14.6200,     9.0,
14.6300,     9.0,
14.6400,     5.0,
14.6500,     6.0,
14.6600,     5.0,
14.6700,     9.0,
14.6800,    12.0,
14.6900,     8.0,
14.7000,    11.0,
14.7100,     7.0,
14.7200,     9.0,
14.7300,     2.0,
14.7400,     6.0,
14.7500,     3.0,
14.7600,     3.0,
14.7700,     6.0,
14.7800,    15.0,
14.7900,     5.0,
14.8000,     8.0,
14.8100,     8.0,
14.8200,    11.0,
14.8300,     8.0,
14.8400,    11.0,
14.8500,     4.0,
14.8600,     5.0,
14.8700,    10.0,
14.8800,     5.0,
14.8900,     5.0,
14.9000,     1.0,
14.9100,     7.0,
14.9200,     7.0,
14.9300,     5.0,
14.9400,     5.0,
14.9500,     7.0,
14.9600,    14.0,
14.9700,     5.0,
14.9800,     6.0,
14.9900,     4.0,
#ENDOFDATA   : 
